022b 1.8 bar He
Integration time [ms]:   10.00
Averaging Nr. [scans]: 2
Smoothing Nr. [pixels]: 0
Data measured with spectrometer [name]: 0705014U1
Wave   ;Sample   ;Dark     ;Reference;Scope
[nm]   ;[counts] ;[counts] ;[counts] 

 177.04;  -27.500;    0.000;    0.000
 177.39;  -26.500;    0.000;    0.000
 177.73;   43.500;    0.000;    0.000
 178.07;   24.000;    0.000;    0.000
 178.41;   48.000;    0.000;    0.000
 178.75;   25.500;    0.000;    0.000
 179.09;    8.000;    0.000;    0.000
 179.43;   22.000;    0.000;    0.000
 179.78;   46.000;    0.000;    0.000
 180.12;   72.500;    0.000;    0.000
 180.46;   10.000;    0.000;    0.000
 180.80;  -12.500;    0.000;    0.000
 181.14;   17.000;    0.000;    0.000
 181.48;   -9.500;    0.000;    0.000
 181.82;   15.500;    0.000;    0.000
 182.17;    9.500;    0.000;    0.000
 182.51;    4.500;    0.000;    0.000
 182.85;  -20.000;    0.000;    0.000
 183.19;   -9.000;    0.000;    0.000
 183.53;   32.500;    0.000;    0.000
 183.87;  -19.000;    0.000;    0.000
 184.21;   33.500;    0.000;    0.000
 184.55;   12.000;    0.000;    0.000
 184.90;    9.000;    0.000;    0.000
 185.24;   80.000;    0.000;    0.000
 185.58;   46.000;    0.000;    0.000
 185.92;  -35.000;    0.000;    0.000
 186.26;   27.500;    0.000;    0.000
 186.60;  -17.500;    0.000;    0.000
 186.94;   11.500;    0.000;    0.000
 187.28;   31.000;    0.000;    0.000
 187.63;    5.000;    0.000;    0.000
 187.97;   40.500;    0.000;    0.000
 188.31;    9.000;    0.000;    0.000
 188.65;   23.000;    0.000;    0.000
 188.99;    2.000;    0.000;    0.000
 189.33;   -7.500;    0.000;    0.000
 189.67;   23.000;    0.000;    0.000
 190.01;  -13.500;    0.000;    0.000
 190.36;   -6.000;    0.000;    0.000
 190.70;  -10.000;    0.000;    0.000
 191.04;   45.500;    0.000;    0.000
 191.38;    7.500;    0.000;    0.000
 191.72;   17.000;    0.000;    0.000
 192.06;   27.000;    0.000;    0.000
 192.40;   60.500;    0.000;    0.000
 192.74;    3.000;    0.000;    0.000
 193.08;    4.500;    0.000;    0.000
 193.43;   -3.500;    0.000;    0.000
 193.77;   41.000;    0.000;    0.000
 194.11;   20.000;    0.000;    0.000
 194.45;   -1.000;    0.000;    0.000
 194.79;   -7.000;    0.000;    0.000
 195.13;   28.000;    0.000;    0.000
 195.47;    3.500;    0.000;    0.000
 195.81;  -11.500;    0.000;    0.000
 196.15;   41.500;    0.000;    0.000
 196.49;   -3.000;    0.000;    0.000
 196.84;    8.000;    0.000;    0.000
 197.18;   35.500;    0.000;    0.000
 197.52;   18.000;    0.000;    0.000
 197.86;  -22.000;    0.000;    0.000
 198.20;   13.500;    0.000;    0.000
 198.54;   36.500;    0.000;    0.000
 198.88;   15.000;    0.000;    0.000
 199.22;    4.500;    0.000;    0.000
 199.56;   28.000;    0.000;    0.000
 199.90;  -27.500;    0.000;    0.000
 200.25;   14.500;    0.000;    0.000
 200.59;    3.000;    0.000;    0.000
 200.93;   66.500;    0.000;    0.000
 201.27;  -17.500;    0.000;    0.000
 201.61;   31.000;    0.000;    0.000
 201.95;   36.000;    0.000;    0.000
 202.29;   32.500;    0.000;    0.000
 202.63;   -1.500;    0.000;    0.000
 202.97;    8.000;    0.000;    0.000
 203.31;  -19.000;    0.000;    0.000
 203.65;  -16.000;    0.000;    0.000
 203.99;   15.000;    0.000;    0.000
 204.34;    1.000;    0.000;    0.000
 204.68;   47.500;    0.000;    0.000
 205.02;   33.500;    0.000;    0.000
 205.36;  -11.500;    0.000;    0.000
 205.70;   38.500;    0.000;    0.000
 206.04;   11.000;    0.000;    0.000
 206.38;   24.500;    0.000;    0.000
 206.72;   22.500;    0.000;    0.000
 207.06;  -12.000;    0.000;    0.000
 207.40;   -5.000;    0.000;    0.000
 207.74;   34.500;    0.000;    0.000
 208.08;  -28.500;    0.000;    0.000
 208.42;    2.500;    0.000;    0.000
 208.76;   -6.500;    0.000;    0.000
 209.11;  -21.500;    0.000;    0.000
 209.45;   40.000;    0.000;    0.000
 209.79;    2.500;    0.000;    0.000
 210.13;    1.000;    0.000;    0.000
 210.47;   36.500;    0.000;    0.000
 210.81;   -4.000;    0.000;    0.000
 211.15;   27.000;    0.000;    0.000
 211.49;  -16.500;    0.000;    0.000
 211.83;   51.500;    0.000;    0.000
 212.17;    9.000;    0.000;    0.000
 212.51;   40.000;    0.000;    0.000
 212.85;  -17.000;    0.000;    0.000
 213.19;   -6.500;    0.000;    0.000
 213.53;   19.000;    0.000;    0.000
 213.87;   -5.500;    0.000;    0.000
 214.21;   31.500;    0.000;    0.000
 214.55;   25.500;    0.000;    0.000
 214.89;   21.000;    0.000;    0.000
 215.24;   -3.500;    0.000;    0.000
 215.58;   69.000;    0.000;    0.000
 215.92;   17.000;    0.000;    0.000
 216.26;   20.500;    0.000;    0.000
 216.60;   -4.500;    0.000;    0.000
 216.94;    5.000;    0.000;    0.000
 217.28;   13.500;    0.000;    0.000
 217.62;   14.000;    0.000;    0.000
 217.96;   -2.000;    0.000;    0.000
 218.30;  -18.000;    0.000;    0.000
 218.64;   -0.500;    0.000;    0.000
 218.98;   56.500;    0.000;    0.000
 219.32;    4.000;    0.000;    0.000
 219.66;  -12.500;    0.000;    0.000
 220.00;   56.000;    0.000;    0.000
 220.34;   30.000;    0.000;    0.000
 220.68;   53.000;    0.000;    0.000
 221.02;   12.500;    0.000;    0.000
 221.36;   41.000;    0.000;    0.000
 221.70;  -22.500;    0.000;    0.000
 222.04;   20.000;    0.000;    0.000
 222.38;   -8.000;    0.000;    0.000
 222.72;  -16.500;    0.000;    0.000
 223.06;   47.000;    0.000;    0.000
 223.40;   33.500;    0.000;    0.000
 223.74;   11.500;    0.000;    0.000
 224.08;   -1.000;    0.000;    0.000
 224.43;   36.500;    0.000;    0.000
 224.77;   27.500;    0.000;    0.000
 225.11;   25.000;    0.000;    0.000
 225.45;    7.500;    0.000;    0.000
 225.79;   -8.000;    0.000;    0.000
 226.13;   22.000;    0.000;    0.000
 226.47;   10.000;    0.000;    0.000
 226.81;   16.500;    0.000;    0.000
 227.15;   19.500;    0.000;    0.000
 227.49;   25.000;    0.000;    0.000
 227.83;   13.500;    0.000;    0.000
 228.17;  -14.000;    0.000;    0.000
 228.51;   11.000;    0.000;    0.000
 228.85;   30.500;    0.000;    0.000
 229.19;   12.000;    0.000;    0.000
 229.53;   34.000;    0.000;    0.000
 229.87;   52.500;    0.000;    0.000
 230.21;   38.500;    0.000;    0.000
 230.55;   53.500;    0.000;    0.000
 230.89;   22.000;    0.000;    0.000
 231.23;   11.500;    0.000;    0.000
 231.57;    9.500;    0.000;    0.000
 231.91;  -11.500;    0.000;    0.000
 232.25;    8.500;    0.000;    0.000
 232.59;  -29.500;    0.000;    0.000
 232.93;  -42.500;    0.000;    0.000
 233.27;   31.000;    0.000;    0.000
 233.61;   53.500;    0.000;    0.000
 233.95;   60.000;    0.000;    0.000
 234.29;   16.000;    0.000;    0.000
 234.63;   15.000;    0.000;    0.000
 234.97;   76.500;    0.000;    0.000
 235.31;   -7.500;    0.000;    0.000
 235.65;    8.000;    0.000;    0.000
 235.99;   -9.500;    0.000;    0.000
 236.33;   41.500;    0.000;    0.000
 236.67;  -31.500;    0.000;    0.000
 237.01;   -5.500;    0.000;    0.000
 237.35;   17.500;    0.000;    0.000
 237.69;  -31.000;    0.000;    0.000
 238.03;   13.000;    0.000;    0.000
 238.37;   16.000;    0.000;    0.000
 238.71;   30.500;    0.000;    0.000
 239.05;   54.500;    0.000;    0.000
 239.39;  -11.000;    0.000;    0.000
 239.73;  -18.500;    0.000;    0.000
 240.07;   10.500;    0.000;    0.000
 240.41;   43.500;    0.000;    0.000
 240.75;   10.000;    0.000;    0.000
 241.09;    3.500;    0.000;    0.000
 241.42;   31.000;    0.000;    0.000
 241.76;   -7.500;    0.000;    0.000
 242.10;   37.000;    0.000;    0.000
 242.44;   29.000;    0.000;    0.000
 242.78;   73.000;    0.000;    0.000
 243.12;   68.500;    0.000;    0.000
 243.46;   33.500;    0.000;    0.000
 243.80;   33.500;    0.000;    0.000
 244.14;   68.000;    0.000;    0.000
 244.48;   44.500;    0.000;    0.000
 244.82;   39.500;    0.000;    0.000
 245.16;   16.000;    0.000;    0.000
 245.50;   -7.000;    0.000;    0.000
 245.84;   12.000;    0.000;    0.000
 246.18;   26.000;    0.000;    0.000
 246.52;   47.000;    0.000;    0.000
 246.86;  -17.500;    0.000;    0.000
 247.20;   33.500;    0.000;    0.000
 247.54;   29.500;    0.000;    0.000
 247.88;   51.000;    0.000;    0.000
 248.22;  -15.000;    0.000;    0.000
 248.56;   33.500;    0.000;    0.000
 248.90;    4.000;    0.000;    0.000
 249.24;   17.000;    0.000;    0.000
 249.58;   20.000;    0.000;    0.000
 249.92;    2.500;    0.000;    0.000
 250.26;   39.000;    0.000;    0.000
 250.59;   60.000;    0.000;    0.000
 250.93;   43.000;    0.000;    0.000
 251.27;   37.000;    0.000;    0.000
 251.61;   28.000;    0.000;    0.000
 251.95;   -0.500;    0.000;    0.000
 252.29;   13.500;    0.000;    0.000
 252.63;   31.500;    0.000;    0.000
 252.97;   22.000;    0.000;    0.000
 253.31;   -7.000;    0.000;    0.000
 253.65;   36.500;    0.000;    0.000
 253.99;   57.500;    0.000;    0.000
 254.33;   37.000;    0.000;    0.000
 254.67;   -4.000;    0.000;    0.000
 255.01;   43.000;    0.000;    0.000
 255.35;   17.000;    0.000;    0.000
 255.69;  -12.000;    0.000;    0.000
 256.03;   -7.500;    0.000;    0.000
 256.37;   31.500;    0.000;    0.000
 256.70;  -37.500;    0.000;    0.000
 257.04;  -17.000;    0.000;    0.000
 257.38;    4.000;    0.000;    0.000
 257.72;  -17.500;    0.000;    0.000
 258.06;   14.500;    0.000;    0.000
 258.40;   52.000;    0.000;    0.000
 258.74;   28.500;    0.000;    0.000
 259.08;   47.500;    0.000;    0.000
 259.42;   32.000;    0.000;    0.000
 259.76;    8.000;    0.000;    0.000
 260.10;  -14.000;    0.000;    0.000
 260.44;   46.000;    0.000;    0.000
 260.78;   43.000;    0.000;    0.000
 261.11;   -7.500;    0.000;    0.000
 261.45;   40.000;    0.000;    0.000
 261.79;   67.500;    0.000;    0.000
 262.13;   11.000;    0.000;    0.000
 262.47;  -16.000;    0.000;    0.000
 262.81;   14.500;    0.000;    0.000
 263.15;   48.500;    0.000;    0.000
 263.49;    6.000;    0.000;    0.000
 263.83;   10.000;    0.000;    0.000
 264.17;   20.000;    0.000;    0.000
 264.51;   17.000;    0.000;    0.000
 264.85;  -20.000;    0.000;    0.000
 265.18;   15.500;    0.000;    0.000
 265.52;   19.000;    0.000;    0.000
 265.86;   10.500;    0.000;    0.000
 266.20;  -19.500;    0.000;    0.000
 266.54;   14.500;    0.000;    0.000
 266.88;    2.500;    0.000;    0.000
 267.22;   -9.000;    0.000;    0.000
 267.56;   27.000;    0.000;    0.000
 267.90;   17.500;    0.000;    0.000
 268.24;   11.500;    0.000;    0.000
 268.57;  -21.000;    0.000;    0.000
 268.91;   -8.500;    0.000;    0.000
 269.25;    7.000;    0.000;    0.000
 269.59;  -15.000;    0.000;    0.000
 269.93;  -15.500;    0.000;    0.000
 270.27;   -6.500;    0.000;    0.000
 270.61;   -1.000;    0.000;    0.000
 270.95;   26.500;    0.000;    0.000
 271.29;    5.000;    0.000;    0.000
 271.63;   25.000;    0.000;    0.000
 271.96;  -20.500;    0.000;    0.000
 272.30;  -52.500;    0.000;    0.000
 272.64;    5.000;    0.000;    0.000
 272.98;    7.500;    0.000;    0.000
 273.32;   22.000;    0.000;    0.000
 273.66;   49.500;    0.000;    0.000
 274.00;  -54.000;    0.000;    0.000
 274.34;   10.500;    0.000;    0.000
 274.68;   31.000;    0.000;    0.000
 275.01;   41.000;    0.000;    0.000
 275.35;   12.500;    0.000;    0.000
 275.69;   46.000;    0.000;    0.000
 276.03;   39.500;    0.000;    0.000
 276.37;   70.500;    0.000;    0.000
 276.71;  -23.000;    0.000;    0.000
 277.05;    8.500;    0.000;    0.000
 277.39;   70.500;    0.000;    0.000
 277.72;   24.000;    0.000;    0.000
 278.06;   42.500;    0.000;    0.000
 278.40;   14.500;    0.000;    0.000
 278.74;    1.000;    0.000;    0.000
 279.08;   34.500;    0.000;    0.000
 279.42;    0.500;    0.000;    0.000
 279.76;    5.000;    0.000;    0.000
 280.09;   19.500;    0.000;    0.000
 280.43;  -21.500;    0.000;    0.000
 280.77;   65.000;    0.000;    0.000
 281.11;   38.000;    0.000;    0.000
 281.45;   69.000;    0.000;    0.000
 281.79;   97.000;    0.000;    0.000
 282.13;   13.000;    0.000;    0.000
 282.47;   39.500;    0.000;    0.000
 282.80;   51.500;    0.000;    0.000
 283.14;   40.500;    0.000;    0.000
 283.48;   -1.000;    0.000;    0.000
 283.82;   -5.500;    0.000;    0.000
 284.16;   24.500;    0.000;    0.000
 284.50;   45.500;    0.000;    0.000
 284.84;    3.500;    0.000;    0.000
 285.17;   23.500;    0.000;    0.000
 285.51;   11.500;    0.000;    0.000
 285.85;   24.500;    0.000;    0.000
 286.19;   46.500;    0.000;    0.000
 286.53;   28.500;    0.000;    0.000
 286.87;   -2.500;    0.000;    0.000
 287.20;   43.500;    0.000;    0.000
 287.54;   -7.500;    0.000;    0.000
 287.88;   26.500;    0.000;    0.000
 288.22;   35.500;    0.000;    0.000
 288.56;   53.000;    0.000;    0.000
 288.90;   -6.000;    0.000;    0.000
 289.24;   36.500;    0.000;    0.000
 289.57;    7.500;    0.000;    0.000
 289.91;   22.000;    0.000;    0.000
 290.25;   10.000;    0.000;    0.000
 290.59;  -20.000;    0.000;    0.000
 290.93;   37.000;    0.000;    0.000
 291.27;   41.500;    0.000;    0.000
 291.60;    5.500;    0.000;    0.000
 291.94;   34.000;    0.000;    0.000
 292.28;  -23.500;    0.000;    0.000
 292.62;  -48.500;    0.000;    0.000
 292.96;   -0.500;    0.000;    0.000
 293.30;   -6.500;    0.000;    0.000
 293.63;   12.500;    0.000;    0.000
 293.97;   -2.500;    0.000;    0.000
 294.31;   10.500;    0.000;    0.000
 294.65;   19.500;    0.000;    0.000
 294.99;   -6.500;    0.000;    0.000
 295.32;   35.500;    0.000;    0.000
 295.66;  -26.500;    0.000;    0.000
 296.00;   -3.000;    0.000;    0.000
 296.34;   20.000;    0.000;    0.000
 296.68;    9.500;    0.000;    0.000
 297.02;   22.000;    0.000;    0.000
 297.35;    8.500;    0.000;    0.000
 297.69;    3.000;    0.000;    0.000
 298.03;   58.000;    0.000;    0.000
 298.37;  -10.500;    0.000;    0.000
 298.71;   -9.000;    0.000;    0.000
 299.04;   -9.000;    0.000;    0.000
 299.38;   53.500;    0.000;    0.000
 299.72;    8.500;    0.000;    0.000
 300.06;   40.500;    0.000;    0.000
 300.40;   37.000;    0.000;    0.000
 300.73;   33.500;    0.000;    0.000
 301.07;   38.500;    0.000;    0.000
 301.41;   18.500;    0.000;    0.000
 301.75;  -15.500;    0.000;    0.000
 302.09;   31.500;    0.000;    0.000
 302.42;  -10.500;    0.000;    0.000
 302.76;   -0.500;    0.000;    0.000
 303.10;  -48.500;    0.000;    0.000
 303.44;   17.000;    0.000;    0.000
 303.78;   -5.000;    0.000;    0.000
 304.11;   -1.500;    0.000;    0.000
 304.45;   19.500;    0.000;    0.000
 304.79;   70.000;    0.000;    0.000
 305.13;   11.000;    0.000;    0.000
 305.47;  -21.500;    0.000;    0.000
 305.80;  -11.500;    0.000;    0.000
 306.14;    4.500;    0.000;    0.000
 306.48;   22.500;    0.000;    0.000
 306.82;   14.500;    0.000;    0.000
 307.16;   -6.000;    0.000;    0.000
 307.49;   34.000;    0.000;    0.000
 307.83;   45.000;    0.000;    0.000
 308.17;  -46.500;    0.000;    0.000
 308.51;   51.500;    0.000;    0.000
 308.84;   28.000;    0.000;    0.000
 309.18;   42.500;    0.000;    0.000
 309.52;   -0.500;    0.000;    0.000
 309.86;   24.500;    0.000;    0.000
 310.20;   17.500;    0.000;    0.000
 310.53;    9.500;    0.000;    0.000
 310.87;   11.000;    0.000;    0.000
 311.21;    7.000;    0.000;    0.000
 311.55;    3.500;    0.000;    0.000
 311.88;   30.000;    0.000;    0.000
 312.22;   22.500;    0.000;    0.000
 312.56;   19.000;    0.000;    0.000
 312.90;   43.500;    0.000;    0.000
 313.24;  -12.000;    0.000;    0.000
 313.57;   47.000;    0.000;    0.000
 313.91;   11.500;    0.000;    0.000
 314.25;   52.500;    0.000;    0.000
 314.59;  -17.000;    0.000;    0.000
 314.92;   46.000;    0.000;    0.000
 315.26;   27.000;    0.000;    0.000
 315.60;   33.000;    0.000;    0.000
 315.94;  -19.000;    0.000;    0.000
 316.27;   10.500;    0.000;    0.000
 316.61;  -13.500;    0.000;    0.000
 316.95;   24.500;    0.000;    0.000
 317.29;   49.000;    0.000;    0.000
 317.62;   13.500;    0.000;    0.000
 317.96;  -22.500;    0.000;    0.000
 318.30;   -5.000;    0.000;    0.000
 318.64;   52.000;    0.000;    0.000
 318.97;  -27.500;    0.000;    0.000
 319.31;   28.500;    0.000;    0.000
 319.65;   -2.000;    0.000;    0.000
 319.99;   46.000;    0.000;    0.000
 320.32;  -22.000;    0.000;    0.000
 320.66;   26.000;    0.000;    0.000
 321.00;    7.500;    0.000;    0.000
 321.34;   45.500;    0.000;    0.000
 321.67;   78.000;    0.000;    0.000
 322.01;   61.500;    0.000;    0.000
 322.35;   -5.000;    0.000;    0.000
 322.69;  -68.000;    0.000;    0.000
 323.02;   46.500;    0.000;    0.000
 323.36;  -22.500;    0.000;    0.000
 323.70;   40.000;    0.000;    0.000
 324.04;   -9.000;    0.000;    0.000
 324.37;   59.000;    0.000;    0.000
 324.71;   55.000;    0.000;    0.000
 325.05;   29.500;    0.000;    0.000
 325.39;   72.500;    0.000;    0.000
 325.72;   13.500;    0.000;    0.000
 326.06;   48.000;    0.000;    0.000
 326.40;   -2.500;    0.000;    0.000
 326.73;   30.000;    0.000;    0.000
 327.07;   38.500;    0.000;    0.000
 327.41;   -3.000;    0.000;    0.000
 327.75;   30.000;    0.000;    0.000
 328.08;  -16.500;    0.000;    0.000
 328.42;   -4.000;    0.000;    0.000
 328.76;   55.000;    0.000;    0.000
 329.10;   47.500;    0.000;    0.000
 329.43;   25.500;    0.000;    0.000
 329.77;   29.000;    0.000;    0.000
 330.11;   36.500;    0.000;    0.000
 330.44;   -8.500;    0.000;    0.000
 330.78;    8.000;    0.000;    0.000
 331.12;    1.500;    0.000;    0.000
 331.46;  -16.000;    0.000;    0.000
 331.79;    9.000;    0.000;    0.000
 332.13;  -21.500;    0.000;    0.000
 332.47;   29.000;    0.000;    0.000
 332.80;   42.000;    0.000;    0.000
 333.14;   45.000;    0.000;    0.000
 333.48;  -13.000;    0.000;    0.000
 333.81;   21.500;    0.000;    0.000
 334.15;   43.000;    0.000;    0.000
 334.49;   22.000;    0.000;    0.000
 334.83;   47.000;    0.000;    0.000
 335.16;   19.500;    0.000;    0.000
 335.50;   28.500;    0.000;    0.000
 335.84;   12.500;    0.000;    0.000
 336.17;    7.500;    0.000;    0.000
 336.51;   26.500;    0.000;    0.000
 336.85;   33.000;    0.000;    0.000
 337.18;   53.500;    0.000;    0.000
 337.52;   16.500;    0.000;    0.000
 337.86;   44.500;    0.000;    0.000
 338.20;   18.500;    0.000;    0.000
 338.53;   37.500;    0.000;    0.000
 338.87;  -32.000;    0.000;    0.000
 339.21;    0.500;    0.000;    0.000
 339.54;  -11.500;    0.000;    0.000
 339.88;  -15.500;    0.000;    0.000
 340.22;    7.500;    0.000;    0.000
 340.55;    7.000;    0.000;    0.000
 340.89;   31.500;    0.000;    0.000
 341.23;   11.000;    0.000;    0.000
 341.56;   35.500;    0.000;    0.000
 341.90;   42.500;    0.000;    0.000
 342.24;   47.000;    0.000;    0.000
 342.57;   49.000;    0.000;    0.000
 342.91;   17.000;    0.000;    0.000
 343.25;   56.000;    0.000;    0.000
 343.58;   27.500;    0.000;    0.000
 343.92;    0.500;    0.000;    0.000
 344.26;    1.000;    0.000;    0.000
 344.60;   10.500;    0.000;    0.000
 344.93;   -2.500;    0.000;    0.000
 345.27;   62.000;    0.000;    0.000
 345.61;   88.500;    0.000;    0.000
 345.94;   37.500;    0.000;    0.000
 346.28;   18.000;    0.000;    0.000
 346.62;   24.500;    0.000;    0.000
 346.95;   10.500;    0.000;    0.000
 347.29;   -7.000;    0.000;    0.000
 347.63;   16.500;    0.000;    0.000
 347.96;   22.000;    0.000;    0.000
 348.30;    2.500;    0.000;    0.000
